"Directivity Index"			
"Sound Power DI"		"Early Reflections DI"	
"Frequency [Hz]"	"[dB] Directivity Index "	"Frequency [Hz]"	"[dB] Directivity Index "
20.5078	-0.65563	20.5078	-0.280838
21.9727	-2.39416	21.9727	-1.12354
23.4375	-1.83402	23.4375	-0.724068
24.9023	-0.927261	24.9023	-0.395555
26.3672	-1.15182	26.3672	-0.432783
27.832	-0.853505	27.832	-0.380966
29.2969	-1.21485	29.2969	-0.493227
30.7617	-1.0992	30.7617	-0.422246
32.2266	-1.18128	32.2266	-0.482839
33.6914	-1.10527	33.6914	-0.435867
35.1562	-1.22501	35.1562	-0.483915
36.6211	-1.21865	36.6211	-0.484202
38.0859	-1.1656	38.0859	-0.461938
39.5508	-1.15707	39.5508	-0.45996
41.0156	-0.560567	41.0156	-0.227284
42.4805	-0.979447	42.4805	-0.369468
43.9453	-1.04741	43.9453	-0.404596
45.4102	-1.04038	45.4102	-0.400773
46.875	-1.04773	46.875	-0.400398
48.3398	-1.13533	48.3398	-0.434207
51.2695	-1.09466	51.2695	-0.417009
52.7344	-1.07118	52.7344	-0.405609
54.1992	-1.06017	54.1992	-0.399998
55.6641	-1.05255	55.6641	-0.395207
58.5938	-1.09396	58.5938	-0.410061
60.0586	-1.10873	60.0586	-0.416587
62.9883	-1.14811	62.9883	-0.427877
64.4531	-1.19794	64.4531	-0.45175
67.3828	-1.23183	67.3828	-0.468476
68.8477	-1.16528	68.8477	-0.442146
71.7773	-1.04712	71.7773	-0.389467
74.707	-1.04663	74.707	-0.387201
77.6367	-1.0795	77.6367	-0.396906
79.1016	-1.10771	79.1016	-0.406847
82.0312	-1.14976	82.0312	-0.426712
84.9609	-1.07187	84.9609	-0.399554
87.8906	-0.853922	87.8906	-0.303945
90.8203	-0.90781	90.8203	-0.303972
95.2148	-1.15506	95.2148	-0.441959
98.1445	-0.886738	98.1445	-0.310177
101.074	-0.894531	101.074	-0.305884
105.469	-0.88582	105.469	-0.277181
108.398	-0.92497	108.398	-0.292941
112.793	-0.948992	112.793	-0.293707
117.188	-0.99224	117.188	-0.315383
120.117	-1.17641	120.117	-0.3784
124.512	-1.40054	124.512	-0.482645
128.906	-1.19851	128.906	-0.432947
133.301	-1.00852	133.301	-0.342778
139.16	-0.914133	139.16	-0.287432
143.555	-0.882834	143.555	-0.256001
147.949	-0.860017	147.949	-0.2506
153.809	-0.89893	153.809	-0.2339
159.668	-1.05846	159.668	-0.3003
165.527	-0.922062	165.527	-0.260205
171.387	-0.799937	171.387	-0.182589
177.246	-0.906459	177.246	-0.227829
183.105	-0.898066	183.105	-0.239165
188.965	-0.691688	188.965	-0.142594
196.289	-0.0933554	196.289	0.111984
203.613	-0.996079	203.613	-0.212403
210.938	-0.908421	210.938	-0.192588
218.262	-0.775909	218.262	-0.128693
225.586	-0.612681	225.586	-0.0808833
232.91	-0.781291	232.91	-0.129418
241.699	-0.530549	241.699	-0.106623
250.488	1.67093	250.488	0.663099
259.277	1.64734	259.277	1.01155
268.066	0.765042	268.066	0.78628
276.855	-0.0274683	276.855	0.54783
287.109	-0.180204	287.109	0.444625
297.363	-0.271909	297.363	0.506092
307.617	-0.657082	307.617	0.334469
319.336	-0.72212	319.336	0.342653
329.59	-0.588124	329.59	0.383226
341.309	-0.598507	341.309	0.420864
353.027	-0.548613	353.027	0.49136
366.211	-0.932537	366.211	0.398097
379.395	-0.71097	379.395	0.632852
392.578	-1.36589	392.578	0.301755
405.762	-0.767146	405.762	0.56038
420.41	-1.10592	420.41	0.515063
435.059	-0.467577	435.059	0.941321
451.172	-1.98528	451.172	0.216282
465.82	-1.46525	465.82	0.541448
483.398	-0.7734	483.398	0.973871
499.512	-0.729157	499.512	1.37987
517.09	-2.77973	517.09	0.530872
536.133	-2.2545	536.133	0.491911
555.176	-2.61227	555.176	0.306689
574.219	-2.57704	574.219	0.502585
594.727	-2.81439	594.727	0.246432
615.234	-3.51736	615.234	-0.20222
637.207	-2.59805	637.207	0.432161
659.18	-4.35974	659.18	-0.539967
682.617	-3.1845	682.617	0.219976
707.52	-3.11257	707.52	0.0604573
732.422	-5.03795	732.422	-0.914659
757.324	-4.00099	757.324	-0.350155
785.156	-4.68994	785.156	-0.870862
811.523	-4.99737	811.523	-1.08054
840.82	-5.61735	840.82	-1.72863
870.117	-4.45451	870.117	-0.899412
900.879	-5.6498	900.879	-2.00467
933.105	-5.61313	933.105	-2.14111
965.332	-5.71925	965.332	-2.11351
1,000.49	-7.7372	1,000.49	-3.80964
1,035.64	-6.47482	1,035.64	-2.79189
1,072.27	-8.63035	1,072.27	-4.86238
1,108.89	-9.25303	1,108.89	-5.37564
1,148.44	-8.33937	1,148.44	-4.69858
1,189.45	-10.4685	1,189.45	-7.14614
1,230.47	-10.5547	1,230.47	-7.70147
1,274.41	-13.1352	1,274.41	-10.7455
1,319.82	-10.7029	1,319.82	-8.58166
1,366.7	-10.5153	1,366.7	-8.86376
1,413.57	-6.32603	1,413.57	-5.24635
1,463.38	-5.46295	1,463.38	-4.8443
1,516.11	-2.73672	1,516.11	-2.63052
1,568.85	-1.90529	1,568.85	-2.30219
1,624.51	0.309008	1,624.51	-0.852371
1,681.64	1.72923	1,681.64	0.365618
1,741.7	2.50302	1,741.7	0.635832
1,803.22	2.27026	1,803.22	0.538494
1,866.21	1.77519	1,866.21	0.365946
1,932.13	2.15373	1,932.13	0.269528
1,999.51	2.87591	1,999.51	0.515764
2,069.82	3.23052	2,069.82	0.696645
2,143.07	3.24325	2,143.07	0.851222
2,219.24	2.85274	2,219.24	0.753076
2,296.88	2.31003	2,296.88	0.228314
2,378.91	2.3981	2,378.91	0.5672
2,462.4	3.00157	2,462.4	0.893939
2,548.83	2.89331	2,548.83	1.03295
2,639.65	2.16157	2,639.65	0.557606
2,731.93	1.698	2,731.93	0.142603
2,828.61	2.047	2,828.61	0.160807
2,928.22	2.18954	2,928.22	0.18458
3,030.76	2.12722	3,030.76	0.100521
3,137.7	2.70966	3,137.7	0.460081
3,249.02	3.11445	3,249.02	0.817513
3,363.28	2.91444	3,363.28	0.676421
3,481.93	2.97379	3,481.93	0.702124
3,604.98	3.49821	3,604.98	0.974762
3,732.42	4.186	3,732.42	1.4498
3,864.26	4.07029	3,864.26	1.27119
4,000.49	4.17303	4,000.49	1.39814
4,141.11	4.11446	4,141.11	1.47976
4,287.6	4.82847	4,287.6	1.79918
4,438.48	4.61033	4,438.48	1.71108
4,595.21	4.34285	4,595.21	1.51083
4,756.35	4.48449	4,756.35	1.5054
4,924.8	4.85569	4,924.8	1.62108
5,097.66	4.59066	5,097.66	1.40945
5,277.83	4.93016	5,277.83	1.58857
5,463.87	5.13432	5,463.87	1.73931
5,657.23	5.32019	5,657.23	1.94448
5,856.45	5.27776	5,856.45	1.88529
6,062.99	5.28716	6,062.99	1.88831
6,276.86	4.9087	6,276.86	1.5969
6,498.05	4.93029	6,498.05	1.4956
6,726.56	5.07345	6,726.56	1.69061
6,963.87	5.17563	6,963.87	1.76878
7,209.96	5.50713	7,209.96	1.90961
7,464.84	5.27838	7,464.84	1.7685
7,727.05	5.16868	7,727.05	1.63015
7,999.51	5.26925	7,999.51	1.61602
8,282.23	5.11657	8,282.23	1.49881
8,573.73	4.8367	8,573.73	1.27061
8,876.95	4.69164	8,876.95	1.1024
9,188.96	4.74789	9,188.96	1.1809
9,514.16	4.06055	9,514.16	0.838215
9,849.61	4.13767	9,849.61	0.89218
10,196.8	4.05232	10,196.8	0.774826
10,555.7	3.27289	10,555.7	0.277058
10,927.7	2.82894	10,927.7	0.206131
11,313	2.10479	11,313	-0.00086068
11,712.9	3.08613	11,712.9	1.02356
12,126	4.77266	12,126	2.14283
12,553.7	5.91113	12,553.7	2.81622
12,996.1	5.78363	12,996.1	2.67748
13,454.6	5.52424	13,454.6	2.46352
13,929.2	5.53396	13,929.2	2.27527
14,419.9	5.02902	14,419.9	1.40075
14,928.2	4.3281	14,928.2	0.850487
15,455.6	3.17841	15,455.6	-0.138561
16,000.5	3.47763	16,000.5	0.117218
16,564.5	4.72984	16,564.5	1.12882
17,148.9	5.77764	17,148.9	1.66593
17,752.4	5.70406	17,752.4	1.50896
18,379.4	5.79389	18,379.4	1.42186
19,026.9	6.11387	19,026.9	1.62867
19,697.8	6.50321	19,697.8	1.96392
19,999.5	6.57698	19,999.5	2.02852
